Total Quantum Conductivity (W/m-K) = 	582.527	582.485	582.527
Total Classical Conductivity (W/m-K) = 	490.902	490.867	490.902

Quantum <(Delta/omega)^2>^1/2 = 	0.010546
Quantum <(Gamma/omega)^2>^1/2 = 	0.000570406

Classical <(Delta/omega)^2>^1/2 = 	0.00850142
Classical <(Gamma/omega)^2>^1/2 = 	0.000591146

Quantum effective MFP (nm) = 	251.841	251.826	251.841
Classical effective MFP (nm) = 	169.806	169.796	169.806

Quantum RMS Displacements in Angstroms
Atom 0:
  0.0714238  0.0714238  0.0714238  :  0.12371
Atom 1:
  0.0714238  0.0714238  0.0714238  :  0.12371
Average Quantum RMS Displacement = 0.12371

Classical RMS Displacements in Angstroms
Atom 0:
  0.0679914  0.0679914  0.0679914  :  0.117765
Atom 1:
  0.0679914  0.0679914  0.0679914  :  0.117765
Average Classical RMS Displacement = 0.117765



Density of States and Frequency Dependence of Thermal Conductivity
Quantum						Classical
Anharm Freq (1/ps)	DOS (area = 1e12)	k-DOS (area = 1e12)		Anharm Freq (1/ps)	DOS (area = 1e12)	k-DOS (area = 1e12)
1.13626	0	0	0	0		1.13626	0	0	0	0
3.40878	0	0	0	0		3.40878	0	0	0	0
5.6813	0.000347686	0.0203379	0.0203393	0.0203379		5.6813	0	0	0	0
7.95382	0.000521529	0.0270792	0.0270735	0.0270792		7.95382	0.00060845	0.0397141	0.039717	0.0397141
10.2263	0.00060845	0.0175179	0.0175134	0.0175179		10.2263	0.000260764	0.00711836	0.00710927	0.00711836
12.4989	0.00186881	0.0643255	0.0643263	0.0643255		12.4989	0.00195573	0.0694203	0.06942	0.0694203
14.7714	0.000782293	0.00788749	0.00788806	0.00788749		14.7714	0.00104306	0.00694534	0.00694227	0.00694534
17.0439	0.0032161	0.0196597	0.0196575	0.0196597		17.0439	0.00295533	0.0202984	0.0202974	0.0202984
19.3164	0.00234688	0.0206399	0.0206383	0.0206399		19.3164	0.00286841	0.0201212	0.0201185	0.0201212
21.5889	0.00712756	0.0365471	0.0365472	0.0365471		21.5889	0.00347686	0.0225808	0.0225812	0.0225808
23.8615	0.00560644	0.0200391	0.0200395	0.0200391		23.8615	0.00538913	0.0220272	0.0220277	0.0220272
26.134	0.00521529	0.0146346	0.0146352	0.0146346		26.134	0.00647565	0.0158228	0.0158224	0.0158228
28.4065	0.0145159	0.0355262	0.0355265	0.0355262		28.4065	0.0107783	0.0333007	0.0333013	0.0333007
30.679	0.0148636	0.0171339	0.0171344	0.0171339		30.679	0.0118213	0.0117476	0.011748	0.0117476
32.9515	0.0166889	0.0175608	0.0175619	0.0175608		32.9515	0.0151243	0.0195516	0.0195527	0.0195516
35.2241	0.0147767	0.0116649	0.0116653	0.0116649		35.2241	0.0171235	0.0150841	0.0150848	0.0150841
37.4966	0.0134294	0.0176744	0.0176755	0.0176744		37.4966	0.0123863	0.0150737	0.0150745	0.0150737
39.7691	0.0153851	0.0119535	0.0119543	0.0119535		39.7691	0.018775	0.019052	0.0190532	0.019052
42.0416	0.0122559	0.0126432	0.0126443	0.0126432		42.0416	0.0125167	0.00956089	0.00956164	0.00956089
44.3141	0.0103437	0.011971	0.0119718	0.011971		44.3141	0.0127775	0.013274	0.013275	0.013274
46.5867	0.0123863	0.0108672	0.0108681	0.0108672		46.5867	0.0093006	0.0126655	0.0126665	0.0126655
48.8592	0.00704064	0.00688432	0.0068847	0.00688433		48.8592	0.0103002	0.0079707	0.0079715	0.0079707
51.1317	0.00286841	0.00505854	0.00505895	0.00505854		51.1317	0.00521529	0.00541737	0.0054177	0.00541737
53.4042	0.00208612	0.00300639	0.00300661	0.00300639		53.4042	0.00156459	0.00290852	0.00290874	0.00290852
55.6767	0.00330302	0.00348246	0.00348271	0.00348246		55.6767	0.00382455	0.00628918	0.00628964	0.00628918
57.9493	0.00430261	0.00304292	0.00304316	0.00304292		57.9493	0.00260764	0.00190458	0.00190471	0.00190458
60.2218	0.00338994	0.00154686	0.00154699	0.00154686		60.2218	0.00378109	0.00317967	0.00317994	0.00317967
62.4943	0.0036507	0.00112498	0.00112507	0.00112498		62.4943	0.00495453	0.00208593	0.0020861	0.00208593
64.7668	0.00643219	0.00130623	0.00130633	0.00130623		64.7668	0.00591066	0.00190851	0.00190866	0.00190851
67.0393	0.00795332	0.00123969	0.00123979	0.00123969		67.0393	0.00469376	0.000790045	0.000790125	0.000790045
69.3119	0.00860523	0.000486038	0.000486099	0.000486038		69.3119	0.00821408	0.00139101	0.00139113	0.00139101
71.5844	0.0116475	0.000804826	0.00080487	0.000804826		71.5844	0.0130382	0.000770476	0.000770547	0.000770476
73.8569	0.0036507	0.0002886	0.000288637	0.0002886		73.8569	0.00538913	0.000764724	0.000764783	0.000764724
76.1294	0.00195573	0.000312409	0.000312439	0.000312409		76.1294	0.00338994	0.000518131	0.000518179	0.000518131
78.402	0.00208612	0.000121326	0.000121335	0.000121326		78.402	0.00169497	0.000305075	0.000305097	0.000305075
80.6745	0.00886599	0.000664285	0.00066435	0.000664285		80.6745	0.00521529	0.000391061	0.000391097	0.000391061
82.947	0.00990905	0.00146898	0.0014691	0.00146898		82.947	0.00834446	0.00162379	0.00162398	0.00162379
85.2195	0.00864869	0.00278241	0.00278275	0.00278241		85.2195	0.0121255	0.00457973	0.00458033	0.00457973
87.492	0.00782293	0.00319508	0.00319531	0.00319508		87.492	0.00643219	0.00468743	0.00468785	0.00468743
89.7646	0.00547605	0.00194592	0.00194605	0.00194592		89.7646	0.0080837	0.00576301	0.00576343	0.00576301
92.0371	0.00604104	0.00167924	0.00167934	0.00167924		92.0371	0.00538913	0.00349845	0.00349867	0.00349844
94.3096	0.00469376	0.00104174	0.00104179	0.00104174		94.3096	0.00482414	0.00252253	0.0025227	0.00252253
96.5821	0.00434607	0.000685393	0.000685434	0.000685393		96.5821	0.0036507	0.00150746	0.00150753	0.00150746
98.8546	0.0165585	0.000526743	0.00052678	0.000526743		98.8546	0.00864869	0.00154718	0.00154727	0.00154718
101.127	0.0447646	0.00072084	0.000720869	0.00072084		101.127	0.0305094	0.00094554	0.000945591	0.00094554
103.4	0.0486326	0.000527416	0.000527438	0.000527416		103.4	0.0482849	0.00178483	0.00178493	0.00178483
105.672	0.0321175	0.00029618	0.000296189	0.00029618		105.672	0.0429392	0.000974239	0.000974262	0.000974239
107.945	0.0140813	0.000109337	0.000109335	0.000109337		107.945	0.0218608	0.000471252	0.000471261	0.000471252
110.217	0.00675815	2.73335e-05	2.73286e-05	2.73335e-05		110.217	0.0110825	0.000171057	0.000171043	0.000171057
112.49	0	0	0	0		112.49	0.00236861	1.00043e-05	1.00021e-05	1.00043e-05
114.762	0	0	0	0		114.762	0	0	0	0
