Total Quantum Conductivity (W/m-K) = 	573.985	573.941	573.985
Total Classical Conductivity (W/m-K) = 	494.852	494.817	494.852

Quantum <(Delta/omega)^2>^1/2 = 	0.0105466
Quantum <(Gamma/omega)^2>^1/2 = 	0.000573432

Classical <(Delta/omega)^2>^1/2 = 	0.00850099
Classical <(Gamma/omega)^2>^1/2 = 	0.000592964

Quantum effective MFP (nm) = 	246.471	246.455	246.471
Classical effective MFP (nm) = 	170.067	170.057	170.067

Quantum RMS Displacements in Angstroms
Atom 0:
  0.0720164  0.0720164  0.0720164  :  0.124736
Atom 1:
  0.0720164  0.0720164  0.0720164  :  0.124736
Average Quantum RMS Displacement = 0.124736

Classical RMS Displacements in Angstroms
Atom 0:
  0.0686098  0.0686098  0.0686098  :  0.118836
Atom 1:
  0.0686098  0.0686098  0.0686098  :  0.118836
Average Classical RMS Displacement = 0.118836



Density of States and Frequency Dependence of Thermal Conductivity
Quantum						Classical
Anharm Freq (1/ps)	DOS (area = 1e12)	k-DOS (area = 1e12)		Anharm Freq (1/ps)	DOS (area = 1e12)	k-DOS (area = 1e12)
1.13671	0	0	0	0		1.13671	0	0	0	0
3.41012	0.000126658	0.0124283	0.0124292	0.0124283		3.41012	0	0	0	0
5.68353	0.000189987	0.0146218	0.0146134	0.0146218		5.68353	0.000221651	0.0205923	0.0205938	0.0205923
7.95695	0.000712451	0.0701149	0.0701178	0.0701149		7.95695	0.000189987	0.00921624	0.00920562	0.00921624
10.2304	0.000474967	0.0111715	0.0111682	0.0111715		10.2304	0.000807445	0.064661	0.0646619	0.064661
12.5038	0.00202653	0.0336185	0.0336141	0.0336185		12.5038	0.00126658	0.0205173	0.0205164	0.0205173
14.7772	0.00202653	0.0238251	0.0238252	0.0238251		14.7772	0.00104493	0.0164863	0.0164832	0.0164863
17.0506	0.00172571	0.0127003	0.0127002	0.0127003		17.0506	0.00322978	0.0304214	0.0304214	0.0304214
19.324	0.00430637	0.0236881	0.0236875	0.0236881		19.324	0.00254899	0.0118354	0.0118352	0.0118354
21.5974	0.0038314	0.0125493	0.0125494	0.0125493		21.5974	0.00389473	0.0190703	0.0190696	0.0190703
23.8708	0.0058896	0.0262095	0.0262104	0.0262095		23.8708	0.00582627	0.0235822	0.023583	0.0235822
26.1442	0.00815361	0.0234599	0.0234603	0.0234599		26.1442	0.00626957	0.0173767	0.0173767	0.0173767
28.4177	0.0106076	0.0197458	0.0197465	0.0197458		28.4177	0.00970517	0.0267874	0.0267884	0.0267874
30.6911	0.0160539	0.019612	0.0196131	0.019612		30.6911	0.0139007	0.015085	0.0150855	0.015085
32.9645	0.0174471	0.0209103	0.0209115	0.0209103		32.9645	0.0143124	0.016834	0.0168347	0.016834
35.2379	0.0143915	0.0135256	0.0135265	0.0135256		35.2379	0.0151515	0.0156104	0.0156115	0.0156104
37.5113	0.014154	0.0130528	0.0130537	0.0130528		37.5113	0.014724	0.0141613	0.0141621	0.0141613
39.7847	0.0161172	0.0145533	0.0145543	0.0145533		39.7847	0.0165289	0.0147198	0.0147208	0.0147198
42.0581	0.0130616	0.0127789	0.0127799	0.0127789		42.0581	0.0142174	0.0128223	0.0128232	0.0128223
44.3316	0.00997431	0.0103297	0.0103306	0.0103297		44.3316	0.0114467	0.0121366	0.0121374	0.0121366
46.605	0.0102593	0.00857665	0.00857728	0.00857665		46.605	0.00997431	0.0107174	0.0107183	0.0107174
48.8784	0.00794779	0.00573664	0.00573707	0.00573664		48.8784	0.0120325	0.0103203	0.0103211	0.0103203
51.1518	0.00204236	0.00390338	0.0039037	0.00390338		51.1518	0.00384724	0.005065	0.00506532	0.005065
53.4252	0.00303979	0.0040932	0.00409351	0.0040932		53.4252	0.00208986	0.00394389	0.00394417	0.00394389
55.6986	0.0033881	0.00342429	0.00342455	0.00342429		55.6986	0.00310312	0.00467592	0.00467626	0.00467592
57.972	0.00327727	0.00238285	0.00238304	0.00238285		57.972	0.00275481	0.00267526	0.00267546	0.00267526
60.2454	0.00360975	0.0016234	0.00162353	0.0016234		60.2454	0.00403722	0.00305129	0.00305151	0.00305129
62.5189	0.00547796	0.00175579	0.00175593	0.00175579		62.5189	0.00405305	0.00182096	0.00182109	0.00182096
64.7923	0.00574711	0.00118415	0.00118425	0.00118415		64.7923	0.00446469	0.00130607	0.00130617	0.00130607
67.0657	0.00576294	0.000630414	0.000630473	0.000630414		67.0657	0.00669704	0.00158025	0.00158037	0.00158025
69.3391	0.0107343	0.000926036	0.000926116	0.000926036		69.3391	0.00870774	0.00135933	0.00135944	0.00135933
71.6125	0.0105601	0.000668118	0.000668171	0.000668118		71.6125	0.0123492	0.000848278	0.000848355	0.000848278
73.8859	0.00389473	0.000391894	0.00039193	0.000391894		73.8859	0.00619041	0.000647483	0.000647528	0.000647483
76.1593	0.00208986	0.000275117	0.00027514	0.000275117		76.1593	0.00237484	0.000463647	0.000463684	0.000463647
78.4327	0.00299229	0.000250642	0.000250665	0.000250642		78.4327	0.00223235	0.000398046	0.00039808	0.000398046
80.7062	0.00788446	0.00065482	0.000654891	0.00065482		80.7062	0.00531963	0.00049636	0.000496403	0.00049636
82.9796	0.0104968	0.00165442	0.0016546	0.00165442		82.9796	0.00826443	0.00155217	0.00155229	0.00155217
85.253	0.00937269	0.00281542	0.00281567	0.00281542		85.253	0.0113201	0.00406019	0.00406058	0.00406019
87.5264	0.00604792	0.00231378	0.00231398	0.00231378		87.5264	0.00750448	0.00474937	0.00474981	0.00474937
89.7998	0.00650705	0.00230762	0.00230779	0.00230762		89.7998	0.00676037	0.00469639	0.00469671	0.00469639
92.0732	0.00595292	0.00163125	0.00163136	0.00163125		92.0732	0.00550962	0.00355034	0.00355056	0.00355034
94.3466	0.00470218	0.000940382	0.000940437	0.000940382		94.3466	0.00514548	0.00253469	0.00253485	0.00253469
96.6201	0.00424304	0.000679673	0.000679717	0.000679673		96.6201	0.00569961	0.00209132	0.00209144	0.00209132
98.8935	0.0171463	0.000509374	0.000509408	0.000509374		98.8935	0.00647539	0.00101734	0.00101741	0.00101734
101.167	0.0450427	0.000693274	0.000693317	0.000693274		101.167	0.0330261	0.00128079	0.00128085	0.00128079
103.44	0.0477026	0.0005362	0.000536228	0.0005362		103.44	0.0463093	0.00139457	0.00139465	0.00139457
105.714	0.0310629	0.00027628	0.00027629	0.00027628		105.714	0.0421613	0.00100797	0.00100802	0.00100797
107.987	0.0149456	0.000113646	0.000113647	0.000113646		107.987	0.0222443	0.000462754	0.000462763	0.000462754
110.261	0.00664163	2.2897e-05	2.28943e-05	2.2897e-05		110.261	0.0116684	0.000173176	0.000173171	0.000173176
112.534	0	0	0	0		112.534	0.00224026	1.07076e-05	1.07049e-05	1.07076e-05
114.807	0	0	0	0		114.807	0	0	0	0
